M- spectrum laser
Integration time: 100 ms
Average: 1 scans
Nr of pixels used for smoothing: 0
Data measured with spectrometer serial number: 0603045S1
Wave   ;Sample
[nm]   ;[counts]
272,49;-3,7500
273,08;-25,500
273,67;4,2500
274,27;-6,5000
274,86;36,250
275,46;-5,5000
276,05;-31,750
276,64;-5,5000
277,24;-8,7500
277,83;10,500
278,42;6,2500
279,02;25,500
279,61;22,250
280,21;16,500
280,80;-39,750
281,39;11,500
281,99;-1,7500
282,58;-13,500
283,17;-16,750
283,77;-23,500
284,36;-9,7500
284,95;11,500
285,55;-27,750
286,14;-6,5000
286,73;-31,750
287,33;-6,5000
287,92;-3,7500
288,51;-14,500
289,11;5,2500
289,70;2,5000
290,29;10,250
290,89;20,500
291,48;-1,7500
292,07;-27,500
292,66;-8,7500
293,26;-27,500
293,85;-8,7500
294,44;-8,5000
295,04;-8,7500
295,63;-15,500
296,22;1,2500
296,81;7,5000
297,41;-20,750
298,00;5,5000
298,59;-9,7500
299,19;5,5000
299,78;11,250
300,37;36,500
300,96;-24,750
301,56;-58,500
302,15;4,2500
302,74;-33,500
303,33;-7,7500
303,92;-33,500
304,52;-11,750
305,11;-9,5000
305,70;19,250
306,29;-21,500
306,89;32,250
307,48;-3,5000
308,07;5,2500
308,66;-5,5000
309,25;14,250
309,85;-26,500
310,44;9,2500
311,03;-46,500
311,62;-8,7500
312,21;-9,5000
312,81;-21,750
313,40;-35,500
313,99;-38,750
314,58;-33,500
315,17;-49,750
315,77;-10,500
316,36;-9,7500
316,95;-38,500
317,54;-17,750
318,13;51,500
318,72;-6,7500
319,32;-0,5000
319,91;-43,750
320,50;-22,500
321,09;-23,750
321,68;-26,500
322,27;26,250
322,86;3,5000
323,46;-29,750
324,05;11,500
324,64;-26,750
325,23;5,5000
325,82;4,2500
326,41;-12,500
327,00;-29,750
327,59;-40,500
328,18;14,250
328,78;-15,500
329,37;-26,750
329,96;-28,500
330,55;-36,750
331,14;-19,500
331,73;-19,750
332,32;-22,500
332,91;-38,750
333,50;-17,500
334,09;-2,7500
334,68;-5,5000
335,27;21,250
335,87;-9,5000
336,46;-7,7500
337,05;-3,5000
337,64;-16,750
338,23;6,5000
338,82;-56,750
339,41;-42,500
340,00;-45,750
340,59;-17,500
341,18;-8,7500
341,77;-35,500
342,36;-13,750
342,95;-0,5000
343,54;-59,750
344,13;-26,500
344,72;-15,750
345,31;-12,500
345,90;-1,7500
346,49;-23,500
347,08;-12,750
347,67;-13,500
348,26;-15,750
348,85;-45,500
349,44;-23,750
350,03;-53,500
350,62;2,2500
351,21;-39,500
351,80;-13,750
352,39;-17,500
352,98;-25,750
353,57;-34,500
354,16;-7,7500
354,75;-3,5000
355,34;-39,750
355,93;-17,500
356,52;-12,750
357,11;-18,500
357,70;-42,750
358,29;-68,500
358,87;-30,750
359,46;-7,5000
360,05;-40,750
360,64;-22,500
361,23;-35,750
361,82;-24,500
362,41;-18,750
363,00;-23,500
363,59;-14,750
364,18;-8,5000
364,77;-1,7500
365,36;2,5000
365,94;-8,7500
366,53;-8,5000
367,12;-14,750
367,71;-28,500
368,30;-8,7500
368,89;-20,500
369,48;-22,750
370,07;-21,500
370,65;-33,750
371,24;8,5000
371,83;3,2500
372,42;-26,500
373,01;16,250
373,60;-14,500
374,19;-26,750
374,77;40,500
375,36;-21,750
375,95;-24,500
376,54;-8,7500
377,13;-30,500
377,72;-18,750
378,30;22,500
378,89;-35,750
379,48;-20,500
380,07;-36,750
380,66;-3,5000
381,25;-10,750
381,83;-12,500
382,42;20,250
383,01;-16,500
383,60;-12,750
384,19;-39,500
384,77;-3,7500
385,36;-8,5000
385,95;-11,750
386,54;-48,500
387,12;-34,750
387,71;9,5000
388,30;-32,750
388,89;-2,5000
389,48;9,2500
390,06;-18,500
390,65;7,2500
391,24;-46,500
391,83;-2,7500
392,41;-29,500
393,00;-27,750
393,59;-2,5000
394,18;-17,750
394,76;-11,500
395,35;-33,750
395,94;-54,500
396,52;-28,750
397,11;20,500
397,70;-30,750
398,29;21,500
398,87;-24,750
399,46;-17,500
400,05;-16,750
400,63;26,500
401,22;11,250
401,81;-16,500
402,39;-24,750
402,98;-25,500
403,57;-27,750
404,15;-18,500
404,74;0,2500
405,33;-66,500
405,91;-0,7500
406,50;-20,500
407,09;-63,750
407,67;-26,500
408,26;-35,750
408,85;-35,500
409,43;-10,750
410,02;-29,500
410,61;15,250
411,19;-14,500
411,78;-32,750
412,37;-0,5000
412,95;-35,750
413,54;-3,5000
414,12;-4,7500
414,71;-10,500
415,30;-10,750
415,88;-11,500
416,47;-42,750
417,06;-28,500
417,64;-20,750
418,23;2,5000
418,81;2,2500
419,40;-6,5000
419,98;6,2500
420,57;-9,5000
421,16;-21,750
421,74;51,500
422,33;-17,750
422,91;-16,500
423,50;-9,7500
424,08;-53,500
424,67;-8,7500
425,26;-48,500
425,84;-23,750
426,43;1,5000
427,01;-8,7500
427,60;6,5000
428,18;-1,7500
428,77;-32,500
429,35;-25,750
429,94;-23,500
430,52;-21,750
431,11;-6,5000
431,69;11,250
432,28;-28,500
432,86;-22,750
433,45;-18,500
434,03;-2,7500
434,62;-2,5000
435,20;-25,750
435,79;45,500
436,37;-5,7500
436,96;-0,5000
437,54;-39,750
438,13;10,500
438,71;-28,750
439,30;-27,500
439,88;-6,7500
440,47;30,500
441,05;-23,750
441,64;-29,500
442,22;-53,750
442,80;-53,500
443,39;-0,7500
443,97;-33,500
444,56;-47,750
445,14;-31,500
445,73;-15,750
446,31;-13,500
446,90;-24,750
447,48;-7,5000
448,06;-14,750
448,65;-28,500
449,23;-30,750
449,82;-17,500
450,40;-19,750
450,98;-19,500
451,57;-11,750
452,15;-9,5000
452,74;-4,7500
453,32;0,5000
453,90;-73,750
454,49;-27,500
455,07;-42,750
455,65;-8,5000
456,24;-30,750
456,82;6,5000
457,41;-22,750
457,99;-19,500
458,57;-24,750
459,16;-6,5000
459,74;-12,750
460,32;39,500
460,91;-14,750
461,49;-62,500
462,07;6,2500
462,66;-45,500
463,24;-61,750
463,82;-21,500
464,41;-39,750
464,99;22,500
465,57;-6,7500
466,15;-47,500
466,74;-7,7500
467,32;-17,500
467,90;-24,750
468,49;-20,500
469,07;10,250
469,65;-21,500
470,23;-26,750
470,82;-42,500
471,40;16,250
471,98;-2,5000
472,57;-68,750
473,15;4,5000
473,73;0,2500
474,31;10,500
474,90;-29,750
475,48;7,5000
476,06;10,250
476,64;-12,500
477,23;-16,750
477,81;-6,5000
478,39;-36,750
478,97;-1,5000
479,55;-17,750
480,14;-49,500
480,72;3,2500
481,30;-4,5000
481,88;-3,7500
482,47;-3,5000
483,05;-28,750
483,63;-34,500
484,21;35,250
484,79;-24,500
485,37;-19,750
485,96;-9,5000
486,54;22,250
487,12;4,5000
487,70;-10,750
488,28;-12,500
488,86;-18,750
489,45;-24,500
490,03;0,2500
490,61;6,5000
491,19;-77,750
491,77;-0,5000
492,35;5,2500
492,94;8,5000
493,52;-29,750
494,10;-15,500
494,68;-29,750
495,26;-13,500
495,84;-18,750
496,42;7,5000
497,00;8,2500
497,58;-25,500
498,17;-48,750
498,75;-37,500
499,33;-4,7500
499,91;-17,500
500,49;-18,750
501,07;-30,500
501,65;-42,750
502,23;-29,500
502,81;1,2500
503,39;-36,500
503,97;-11,750
504,55;-62,500
505,14;-18,750
505,72;-20,500
506,30;-20,750
506,88;-30,500
507,46;-17,750
508,04;-41,500
508,62;-32,750
509,20;-52,500
509,78;-48,750
510,36;-31,500
510,94;-0,7500
511,52;14,500
512,10;-11,750
512,68;27,500
513,26;-35,750
513,84;-13,500
514,42;7,2500
515,00;19,500
515,58;-54,750
516,16;-24,500
516,74;-17,750
517,32;-8,5000
517,90;19,250
518,48;-30,500
519,06;-10,750
519,64;-33,500
520,22;22,250
520,80;2,5000
521,38;-9,7500
521,96;1,5000
522,54;-31,750
523,12;-34,500
523,70;-29,750
524,27;-17,500
524,85;-6,7500
525,43;-28,500
526,01;1,2500
526,59;-14,500
527,17;23,250
527,75;6,5000
528,33;-43,750
528,91;17,500
529,49;28,250
530,07;132,50
530,64;142,25
531,22;551,50
531,80;6074,3
532,38;8854,5
532,96;873,25
533,54;245,50
534,12;155,25
534,70;38,500
535,28;58,250
535,85;7,5000
536,43;-10,750
537,01;-10,500
537,59;-42,750
538,17;22,500
538,75;-11,750
539,32;-11,500
539,90;-9,7500
540,48;-8,5000
541,06;-0,7500
541,64;-26,500
542,22;42,250
542,79;22,500
543,37;16,250
543,95;-11,500
544,53;5,2500
545,11;-3,5000
545,68;41,250
546,26;39,500
546,84;-19,750
547,42;-1,5000
548,00;-22,750
548,57;18,500
549,15;12,250
549,73;11,500
550,31;2,2500
550,88;-68,500
551,46;7,2500
552,04;-17,500
552,62;-11,750
553,19;-25,500
553,77;-11,750
554,35;-23,500
554,93;8,2500
555,50;-2,5000
556,08;-60,750
556,66;-12,500
557,24;-28,750
557,81;-8,5000
558,39;6,2500
558,97;0,5000
559,54;-12,750
560,12;-73,500
560,70;-28,750
561,27;-10,500
561,85;-23,750
562,43;-27,500
563,01;-43,750
563,58;-45,500
564,16;-8,7500
564,74;-3,5000
565,31;-40,750
565,89;-26,500
566,47;-26,750
567,04;-5,5000
567,62;11,250
568,20;-14,500
568,77;-30,750
569,35;-27,500
569,92;-1,7500
570,50;-14,500
571,08;-25,750
571,65;-15,500
572,23;-27,750
572,81;4,5000
573,38;-22,750
573,96;-19,500
574,53;-43,750
575,11;-17,500
575,69;3,2500
576,26;6,5000
576,84;-20,750
577,41;-4,5000
577,99;-38,750
578,56;-47,500
579,14;-33,750
579,72;-15,500
580,29;-8,7500
580,87;-11,500
581,44;23,250
582,02;-40,500
582,59;31,250
583,17;-22,500
583,74;-21,750
584,32;-34,500
584,90;-28,750
585,47;16,500
586,05;-39,750
586,62;-21,500
587,20;-13,750
587,77;-9,5000
588,35;-20,750
588,92;21,500
589,50;-42,750
590,07;-11,500
590,65;-29,750
591,22;-34,500
591,80;-22,750
592,37;-20,500
592,95;-10,750
593,52;-0,5000
594,10;-9,7500
594,67;-23,500
595,24;-4,7500
595,82;-33,500
596,39;-29,750
596,97;-14,500
597,54;-32,750
598,12;-24,500
598,69;-17,750
599,27;-34,500
599,84;-23,750
600,41;-18,500
600,99;-43,750
601,56;-49,500
602,14;-34,750
602,71;-13,500
603,29;-42,750
603,86;-53,500
604,43;-12,750
605,01;-43,500
605,58;-42,750
606,16;-39,500
606,73;-28,750
607,30;-38,500
607,88;-21,750
608,45;-18,500
609,02;-32,750
609,60;-16,500
610,17;-3,7500
610,74;-26,500
611,32;23,250
611,89;-9,5000
612,47;-12,750
613,04;-26,500
613,61;-6,7500
614,19;-21,500
614,76;-37,750
615,33;-52,500
615,90;-43,750
616,48;-0,5000
617,05;-20,750
617,62;-16,500
618,20;-31,750
618,77;-20,500
619,34;-30,750
619,92;-5,5000
620,49;-45,750
621,06;-18,500
621,63;-24,750
622,21;-11,500
622,78;-36,750
623,35;-6,5000
623,93;-38,750
624,50;-25,500
625,07;-17,750
625,64;-4,5000
626,22;-13,750
626,79;22,500
627,36;-6,7500
627,93;-17,500
628,51;-7,7500
629,08;-30,500
629,65;-21,750
630,22;-7,5000
630,79;-5,7500
631,37;-21,500
631,94;-4,7500
632,51;-25,500
633,08;-19,750
633,65;-33,500
634,23;-5,7500
634,80;-19,500
635,37;-15,750
635,94;-29,500
636,51;4,2500
637,08;-0,5000
637,66;-34,750
638,23;-27,500
638,80;-3,7500
639,37;-18,500
639,94;-27,750
640,51;-40,500
641,09;23,250
641,66;-9,5000
642,23;-39,750
642,80;7,5000
643,37;-8,7500
643,94;-0,5000
644,51;-6,7500
645,08;-29,500
645,66;-31,750
646,23;-16,500
646,80;-25,750
647,37;-31,500
647,94;7,2500
648,51;-15,500
649,08;-21,750
649,65;-36,500
650,22;-38,750
650,79;-28,500
651,36;-12,750
651,93;-24,500
652,51;-26,750
653,08;5,5000
653,65;-58,750
654,22;-0,5000
654,79;-35,750
655,36;-30,500
655,93;-21,750
656,50;-23,500
657,07;-65,750
657,64;-45,500
658,21;-28,750
658,78;1,5000
659,35;-16,750
659,92;-9,5000
660,49;-14,750
661,06;4,5000
661,63;-28,750
662,20;-35,500
662,77;-44,750
663,34;-61,500
663,91;-47,750
664,48;16,500
665,05;-20,750
665,62;38,500
666,19;-28,750
666,76;0,5000
667,33;-35,750
667,90;-22,500
668,47;-25,750
669,03;1,5000
669,60;-11,750
670,17;-47,500
670,74;-37,750
671,31;-62,500
671,88;-26,750
672,45;16,500
673,02;-63,750
673,59;-39,500
674,16;-14,750
674,73;5,5000
675,30;-49,750
675,86;-38,500
676,43;-31,750
677,00;2,5000
677,57;-23,750
678,14;-17,500
678,71;-19,750
679,28;-33,500
679,85;-43,750
680,41;0,5000
680,98;-6,7500
681,55;-47,500
682,12;-44,750
682,69;-35,500
683,26;-19,750
683,82;22,500
684,39;-30,750
684,96;-52,500
685,53;-17,750
686,10;-26,500
686,67;-22,750
687,23;-26,500
687,80;-15,750
688,37;-13,500
688,94;-20,750
689,51;-11,500
690,07;-33,750
690,64;3,5000
691,21;-87,750
691,78;-3,5000
692,34;-18,750
692,91;-51,500
693,48;-19,750
694,05;-54,500
694,61;-8,7500
695,18;-16,500
695,75;-10,750
696,32;-21,500
696,88;-41,750
697,45;-23,500
698,02;-5,7500
698,59;-21,500
699,15;-13,750
699,72;-25,500
700,29;-51,750
700,85;-9,5000
701,42;-34,750
701,99;-4,5000
702,55;9,2500
703,12;-35,500
703,69;-27,750
704,26;-39,500
704,82;-19,750
705,39;-14,500
705,96;-12,750
706,52;-8,5000
707,09;-14,750
707,66;11,500
708,22;-6,7500
708,79;-24,500
709,35;-72,750
709,92;-10,500
710,49;-4,7500
711,05;-32,500
711,62;-24,750
712,19;-22,500
712,75;-26,750
713,32;-40,500
713,88;-35,750
714,45;-1,5000
715,02;-40,750
715,58;4,5000
716,15;-16,750
716,71;-17,500
717,28;-27,750
717,85;-34,500
718,41;-89,750
718,98;20,500
719,54;-22,750
720,11;-52,500
720,67;-21,750
721,24;-8,5000
721,80;-53,750
722,37;-41,500
722,94;-13,750
723,50;21,500
724,07;-37,750
724,63;-5,5000
725,20;-1,7500
725,76;-39,500
726,33;-10,750
726,89;-17,500
727,46;-80,750
728,02;-12,500
728,59;-34,750
729,15;-60,500
729,72;-24,750
730,28;-0,5000
730,85;-17,750
731,41;-2,5000
731,98;-39,750
732,54;19,500
733,10;-23,750
733,67;-36,500
734,23;9,2500
734,80;-12,500
735,36;-12,750
735,93;-18,500
736,49;-67,750
737,06;-9,5000
737,62;19,250
738,18;4,5000
738,75;2,2500
739,31;-38,500
739,88;-11,750
740,44;-46,500
741,00;-29,750
741,57;3,5000
742,13;-34,750
742,70;-40,500
743,26;-42,750
743,82;-5,5000
744,39;-1,7500
744,95;-12,500
745,51;-54,750
746,08;27,500
746,64;-46,750
747,21;-40,500
747,77;-31,750
748,33;-9,5000
748,90;-40,750
749,46;-11,500
750,02;-9,7500
750,59;-5,5000
751,15;-30,750
751,71;-29,500
752,28;-33,750
752,84;8,5000
753,40;16,250
753,96;-11,500
754,53;-52,750
755,09;16,500
755,65;-21,750
756,22;66,500
756,78;-22,750
757,34;-40,500
757,90;12,250
758,47;-38,500
759,03;-32,750
759,59;-27,500
760,15;5,2500
760,72;-32,500
761,28;-0,7500
761,84;-20,500
762,40;-41,750
762,97;-19,500
763,53;-50,750
764,09;-47,500
764,65;-60,750
765,21;-48,500
765,78;-18,750
766,34;-48,500
766,90;-48,750
767,46;-2,5000
768,02;-62,750
768,59;-7,5000
769,15;-29,750
769,71;-19,500
770,27;-9,7500
770,83;-19,500
771,39;-34,750
771,96;13,500
772,52;-21,750
773,08;-24,500
773,64;-27,750
774,20;-51,500
774,76;-9,7500
775,32;3,5000
775,89;-3,7500
776,45;-38,500
777,01;-16,750
777,57;19,500
778,13;-34,750
778,69;-7,5000
779,25;-48,750
779,81;-20,500
780,37;-39,750
780,94;-32,500
781,50;-69,750
782,06;-48,500
782,62;-51,750
783,18;-44,500
783,74;-34,750
784,30;-36,500
784,86;-21,750
785,42;0,5000
785,98;-25,750
786,54;-8,5000
787,10;-67,750
787,66;-35,500
788,22;-15,750
788,78;-42,500
789,34;-8,7500
789,90;-31,500
790,46;-37,750
791,02;6,5000
791,58;-35,750
792,14;-61,500
792,70;9,2500
793,26;-30,500
793,82;-25,750
794,38;-27,500
794,94;-13,750
795,50;-12,500
796,06;-31,750
796,62;-1,5000
797,18;-22,750
797,74;-20,500
798,30;10,250
798,86;-22,500
799,42;-76,750
799,98;-14,500
800,54;-18,750
801,10;-25,500
801,66;-47,750
802,21;-5,5000
802,77;-32,750
803,33;-20,500
803,89;-31,750
804,45;-20,500
805,01;-19,750
805,57;-42,500
806,13;-0,7500
806,69;-26,500
807,24;-49,750
807,80;-7,5000
808,36;-42,750
808,92;2,5000
809,48;49,250
810,04;3,5000
810,60;-30,750
811,15;-33,500
811,71;-49,750
812,27;-32,500
812,83;-15,750
813,39;-25,500
813,95;-12,750
814,50;-44,500
815,06;-17,750
815,62;-3,5000
816,18;0,2500
816,74;-3,5000
817,29;-41,750
817,85;-26,500
818,41;-21,750
818,97;-1,5000
819,53;-14,750
820,08;-9,5000
820,64;3,2500
821,20;-0,5000
821,76;-24,750
822,31;-3,5000
822,87;-28,750
823,43;8,5000
823,99;5,2500
824,54;-27,500
825,10;-19,750
825,66;-36,500
826,21;-52,750
826,77;-15,500
827,33;0,2500
827,89;-39,500
828,44;-30,750
829,00;-11,500
829,56;-1,7500
830,11;-24,500
830,67;-0,7500
831,23;-7,5000
831,78;-22,750
832,34;-4,5000
832,90;13,250
833,45;3,5000
834,01;-44,750
834,57;-5,5000
835,12;-42,750
835,68;28,500
836,24;-30,750
836,79;-54,500
837,35;-56,750
837,91;7,5000
838,46;-20,750
839,02;3,5000
839,57;-32,750
840,13;-31,500
840,69;-44,750
841,24;-29,500
841,80;27,250
842,35;-9,5000
842,91;-18,750
843,46;-63,500
844,02;-25,750
844,58;-20,500
845,13;27,250
845,69;-33,500
846,24;-0,7500
846,80;-18,500
847,35;-54,750
847,91;-2,5000
848,46;22,250
849,02;-24,500
849,57;-28,750
850,13;-25,500
850,69;-2,7500
851,24;-7,5000
851,80;-38,750
852,35;30,500
852,91;-67,750
853,46;-10,500
854,02;-21,750
854,57;-57,500
855,12;-21,750
855,68;-28,500
856,23;-52,750
856,79;-13,500
857,34;-41,750
857,90;-6,5000
858,45;-78,750
859,01;-31,500
859,56;-22,750
860,12;14,500
860,67;-26,750
861,22;-25,500
861,78;-49,750
862,33;-5,5000
862,89;-0,7500
863,44;-43,500
863,99;-28,750
864,55;-17,500
865,10;-15,750
865,66;-40,500
866,21;-7,7500
866,76;-42,500
867,32;-33,750
867,87;-9,5000
868,42;-10,750
868,98;-40,500
869,53;-15,750
870,09;18,500
870,64;-21,750
871,19;-23,500
871,75;-17,750
872,30;-30,500
872,85;-25,750
873,41;-26,500
873,96;-23,750
874,51;5,5000
875,07;-24,750
875,62;-26,500
876,17;-57,750
876,72;-25,500
877,28;-19,750
877,83;3,5000
878,38;-19,750
878,94;-22,500
879,49;-21,750
880,04;2,5000
880,59;-15,750
881,15;-80,500
881,70;-25,750
882,25;-30,500
882,80;21,250
883,36;-29,500
883,91;15,250
884,46;-28,500
885,01;-29,750
885,56;-42,500
886,12;9,2500
886,67;-16,500
887,22;-10,750
887,77;-22,500
888,32;-7,7500
888,88;-19,500
889,43;-17,750
889,98;-2,5000
890,53;21,250
891,08;-40,500
891,64;-6,7500
892,19;-12,500
892,74;-35,750
893,29;-17,500
893,84;-72,750
894,39;24,500
894,94;-1,7500
895,50;-2,5000
896,05;-11,750
896,60;-9,5000
897,15;-8,7500
897,70;-33,500
898,25;-13,750
898,80;-61,500
899,35;6,2500
899,90;14,500
900,45;-25,750
901,01;-12,500
901,56;20,250
902,11;-49,500
902,66;-36,750
903,21;-41,500
903,76;-9,7500
904,31;-13,500
904,86;-51,750
905,41;0,5000
905,96;-13,750
906,51;-3,5000
907,06;-5,7500
907,61;-49,500
908,16;12,250
908,71;41,500
909,26;-51,750
909,81;-13,500
910,36;-43,750
910,91;-7,5000
911,46;-59,750
912,01;-21,500
912,56;-11,750
913,11;0,5000
913,66;-41,750
914,21;-34,500
914,76;-12,750
915,31;-14,500
915,86;-34,750
916,41;-72,500
916,96;-1,7500
917,51;-29,500
918,06;-17,750
918,61;-17,500
919,16;10,250
919,71;-21,500
920,25;-41,750
920,80;9,5000
921,35;11,250
921,90;-14,500
922,45;-21,750
923,00;-31,500
923,55;-46,750
924,10;-12,500
924,65;-9,7500
925,19;-64,500
925,74;-50,750
926,29;-24,500
926,84;17,250
927,39;0,5000
927,94;-41,750
928,49;-34,500
929,03;-56,750
929,58;-24,500
930,13;-8,7500
930,68;-30,500
931,23;-26,750
931,77;-24,500
932,32;7,2500
932,87;3,5000
933,42;-3,7500
933,97;-42,500
934,51;-44,750
935,06;-0,5000
935,61;-34,750
936,16;-33,500
936,71;-9,7500
937,25;-29,500
937,80;-35,750
938,35;-28,500
938,90;-14,750
939,44;-38,500
939,99;-37,750
940,54;-35,500
941,09;-5,7500
941,63;-57,500
942,18;-17,750
942,73;-6,5000
943,27;-42,750
943,82;-21,500
944,37;-31,750
944,91;9,5000
945,46;-35,750
946,01;-0,5000
946,56;-26,750
947,10;-49,500
947,65;-27,750
948,20;-30,500
948,74;3,2500
949,29;7,5000
949,83;-12,750
950,38;-14,500
950,93;-41,750
951,47;-38,500
952,02;-22,750
952,57;-46,500
953,11;-10,750
953,66;-28,500
954,20;-10,750
954,75;-32,500
955,30;-28,750
955,84;19,500
956,39;-42,750
956,93;-21,500
957,48;-35,750
958,03;-16,500
958,57;4,2500
959,12;-52,500
959,66;3,2500
960,21;-15,500
960,75;0,2500
961,30;-18,500
961,84;-7,7500
962,39;3,5000
962,94;-75,750
963,48;6,5000
964,03;-19,750
964,57;-10,500
965,12;-55,750
965,66;-3,5000
966,21;-31,750
966,75;5,5000
967,30;4,2500
967,84;-10,500
968,39;-10,750
968,93;-44,500
969,48;-20,750
970,02;-20,500
970,56;13,250
971,11;-2,5000
971,65;2,2500
972,20;-28,500
972,74;-47,750
973,29;-19,500
973,83;-6,7500
974,38;-49,500
974,92;-21,750
975,46;-16,500
976,01;13,250
976,55;-24,500
977,10;-31,750
977,64;-43,500
978,18;-39,750
978,73;-4,5000
979,27;18,250
979,81;-4,5000
980,36;-62,750
980,90;-9,5000
981,45;-59,750
981,99;2,5000
982,53;-1,7500
983,08;-18,500
983,62;-71,750
984,16;-15,500
984,71;-27,750
985,25;-2,5000
985,79;10,250
986,34;-35,500
986,88;-16,750
987,42;-23,500
987,96;20,250
988,51;14,500
989,05;-28,750
989,59;-40,500
990,14;-7,7500
990,68;-39,500
991,22;-29,750
991,76;-44,500
992,31;-15,750
992,85;-14,500
993,39;15,250
993,93;14,500
994,48;-5,7500
995,02;29,500
995,56;2,2500
996,10;-25,500
996,65;28,250
997,19;-1,5000
997,73;-49,750
998,27;-6,5000
998,81;-8,7500
999,36;-24,500
999,90;-34,750
1000,44;-17,500
1000,98;-50,750
1001,52;36,500
1002,06;9,2500
1002,61;-41,500
1003,15;-21,750
1003,69;-34,500
1004,23;-50,750
1004,77;-29,500
1005,31;-24,750
1005,85;-2,5000
1006,40;-5,7500
1006,94;-31,500
1007,48;0,2500
1008,02;-26,500
1008,56;-34,750
1009,10;-16,500
1009,64;-29,750
1010,18;-64,500
1010,72;-29,750
1011,26;-26,500
1011,81;-5,7500
1012,35;-9,5000
1012,89;-21,750
1013,43;-17,500
1013,97;3,2500
1014,51;-46,500
1015,05;1,2500
1015,59;-17,500
1016,13;-13,750
1016,67;18,500
1017,21;4,2500
1017,75;-50,500
1018,29;-1,7500
1018,83;-40,500
1019,37;-1,7500
1019,91;-3,5000
1020,45;-25,750
1020,99;-33,500
1021,53;-24,750
1022,07;-16,500
1022,61;-19,750
1023,15;13,500
1023,69;-9,7500
1024,23;-1,5000
1024,77;-33,750
1025,31;-27,500
1025,85;10,250
1026,39;6,5000
1026,92;-39,750
1027,46;-19,500
1028,00;-24,750
1028,54;-0,5000
1029,08;-28,750
1029,62;-72,500
1030,16;10,250
1030,70;-11,500
1031,24;-65,750
1031,78;-30,500
1032,31;38,250
1032,85;-6,5000
1033,39;-7,7500
1033,93;-27,500
1034,47;-25,750
1035,01;-12,500
1035,55;-5,7500
1036,08;-99,500
1036,62;15,250
1037,16;-41,500
1037,70;-41,750
1038,24;51,500
1038,78;-20,750
1039,31;-48,500
1039,85;-28,750
1040,39;-30,500
1040,93;13,250
1041,47;-40,500
1042,00;-31,750
1042,54;10,500
1043,08;3,2500
1043,62;-17,500
1044,15;-47,750
1044,69;-19,500
1045,23;-12,750
1045,77;9,5000
1046,30;-56,750
1046,84;20,500
1047,38;-15,750
1047,92;-22,500
1048,45;-34,750
1048,99;-19,500
1049,53;28,250
1050,06;-41,500
1050,60;-21,750
1051,14;-19,500
1051,68;-21,750
1052,21;-13,500
1052,75;-21,750
1053,29;-31,500
1053,82;-22,750
1054,36;-22,500
1054,90;-56,750
1055,43;-34,500
1055,97;-27,750
1056,51;-19,500
1057,04;-46,750
1057,58;-20,500
1058,11;3,2500
1058,65;-12,500
1059,19;-29,750
1059,72;-6,5000
1060,26;-2,7500
1060,79;-37,500
1061,33;-7,7500
1061,87;-24,500
1062,40;-5,7500
1062,94;21,500
1063,47;-26,750
1064,01;5,5000
1064,55;-33,750
1065,08;-14,500
1065,62;-15,750
1066,15;-8,5000
1066,69;-5,7500
1067,22;-35,500
1067,76;-15,750
1068,29;-38,500
1068,83;-18,750
1069,36;-26,500
1069,90;-15,750
1070,43;-35,500
1070,97;-22,750
1071,50;-19,500
1072,04;-44,750
1072,57;-33,500
1073,11;-23,750
1073,64;-38,500
1074,18;-40,750
1074,71;-16,500
1075,25;-31,750
1075,78;-19,500
1076,32;-34,750
1076,85;-1,5000
1077,38;15,250
1077,92;-0,5000
1078,45;-8,7500
1078,99;-51,500
1079,52;18,250
1080,06;-13,500
1080,59;-62,750
1081,12;-3,5000
1081,66;-63,750
1082,19;10,500
1082,72;-47,750
1083,26;12,500
1083,79;-17,750
1084,33;24,500
1084,86;-7,7500
1085,39;-17,500
1085,93;-0,7500
1086,46;49,500
1086,99;-6,7500
1087,53;-61,500
1088,06;-10,750
1088,59;-25,500
1089,13;-32,750
1089,66;-23,500
1090,19;-15,750
1090,73;-32,500
1091,26;-25,750
1091,79;-18,500
1092,32;4,2500
1092,86;-31,500
1093,39;1,2500
1093,92;18,500
1094,46;-6,7500
1094,99;-30,500
1095,52;-29,750
1096,05;-44,500
1096,59;-29,750
1097,12;-5,5000
1097,65;-48,750
1098,18;-7,5000
1098,71;-36,750
1099,25;-25,500
1099,78;-24,750
1100,31;-19,500
